# Forest (deciduous and conifer mixture) albedo
# From the JPL EcoStress spectral library
0.300000  0.049480
0.302000  0.049480
0.304000  0.049610
0.306000  0.049730
0.308000  0.049860
0.310000  0.049980
0.312000  0.050110
0.314000  0.050230
0.316000  0.050360
0.318000  0.050480
0.320000  0.050610
0.322000  0.050730
0.324000  0.050860
0.326000  0.050980
0.328000  0.051110
0.330000  0.051230
0.332000  0.051360
0.334000  0.051480
0.336000  0.051610
0.338000  0.051730
0.340000  0.051860
0.342000  0.051980
0.344000  0.052110
0.346000  0.052230
0.348000  0.052360
0.350000  0.052480
0.352000  0.052610
0.354000  0.052730
0.356000  0.052860
0.358000  0.052980
0.360000  0.053110
0.362000  0.053230
0.364000  0.053360
0.366000  0.053480
0.368000  0.053610
0.370000  0.053730
0.372000  0.053860
0.374000  0.053980
0.376000  0.054110
0.378000  0.054230
0.380000  0.054360
0.382000  0.054480
0.384000  0.054610
0.386000  0.054730
0.388000  0.054860
0.390000  0.054980
0.392000  0.055110
0.394000  0.055230
0.396000  0.055360
0.398000  0.055480
0.400000  0.039800
0.401000  0.039770
0.402000  0.040290
0.403000  0.041050
0.404000  0.041690
0.405000  0.042060
0.406000  0.042690
0.407000  0.043120
0.408000  0.043460
0.409000  0.044140
0.410000  0.044920
0.411000  0.045410
0.412000  0.045710
0.413000  0.046770
0.414000  0.047570
0.415000  0.048180
0.416000  0.048940
0.417000  0.049650
0.418000  0.050510
0.419000  0.051450
0.420000  0.052220
0.421000  0.053070
0.422000  0.053890
0.423000  0.054580
0.424000  0.055160
0.425000  0.055940
0.426000  0.056850
0.427000  0.057670
0.428000  0.058360
0.429000  0.059020
0.430000  0.059710
0.431000  0.060390
0.432000  0.060980
0.433000  0.061560
0.434000  0.062240
0.435000  0.062950
0.436000  0.063470
0.437000  0.063920
0.438000  0.064620
0.439000  0.065090
0.440000  0.065530
0.441000  0.066100
0.442000  0.066510
0.443000  0.066870
0.444000  0.067230
0.445000  0.067630
0.446000  0.068050
0.447000  0.068500
0.448000  0.068940
0.449000  0.069260
0.450000  0.069470
0.451000  0.069750
0.452000  0.070210
0.453000  0.070540
0.454000  0.070850
0.455000  0.071120
0.456000  0.071260
0.457000  0.071370
0.458000  0.071580
0.459000  0.071900
0.460000  0.072180
0.461000  0.072240
0.462000  0.072250
0.463000  0.072470
0.464000  0.072660
0.465000  0.072690
0.466000  0.072630
0.467000  0.072770
0.468000  0.073020
0.469000  0.073160
0.470000  0.073100
0.471000  0.073270
0.472000  0.073340
0.473000  0.073340
0.474000  0.073450
0.475000  0.073590
0.476000  0.073740
0.477000  0.073880
0.478000  0.073980
0.479000  0.074020
0.480000  0.074080
0.481000  0.074210
0.482000  0.074380
0.483000  0.074540
0.484000  0.074630
0.485000  0.074640
0.486000  0.074760
0.487000  0.074910
0.488000  0.075020
0.489000  0.075300
0.490000  0.075600
0.491000  0.075830
0.492000  0.075980
0.493000  0.076360
0.494000  0.076710
0.495000  0.076940
0.496000  0.077360
0.497000  0.077760
0.498000  0.078180
0.499000  0.078690
0.500000  0.079240
0.501000  0.079850
0.502000  0.080520
0.503000  0.081250
0.504000  0.082070
0.505000  0.082910
0.506000  0.083760
0.507000  0.084740
0.508000  0.085810
0.509000  0.086890
0.510000  0.087940
0.511000  0.089160
0.512000  0.090490
0.513000  0.091860
0.514000  0.093280
0.515000  0.094760
0.516000  0.096290
0.517000  0.097900
0.518000  0.099580
0.519000  0.101250
0.520000  0.102910
0.521000  0.104600
0.522000  0.106200
0.523000  0.107750
0.524000  0.109260
0.525000  0.110750
0.526000  0.112150
0.527000  0.113440
0.528000  0.114630
0.529000  0.115760
0.530000  0.116780
0.531000  0.117680
0.532000  0.118610
0.533000  0.119410
0.534000  0.120120
0.535000  0.120790
0.536000  0.121410
0.537000  0.121940
0.538000  0.122430
0.539000  0.122960
0.540000  0.123410
0.541000  0.123870
0.542000  0.124370
0.543000  0.124790
0.544000  0.125250
0.545000  0.125690
0.546000  0.126010
0.547000  0.126280
0.548000  0.126540
0.549000  0.126800
0.550000  0.127090
0.551000  0.127330
0.552000  0.127480
0.553000  0.127490
0.554000  0.127440
0.555000  0.127290
0.556000  0.127030
0.557000  0.126680
0.558000  0.126200
0.559000  0.125650
0.560000  0.125050
0.561000  0.124420
0.562000  0.123800
0.563000  0.123160
0.564000  0.122460
0.565000  0.121720
0.566000  0.120930
0.567000  0.120060
0.568000  0.119100
0.569000  0.118120
0.570000  0.117150
0.571000  0.116230
0.572000  0.115350
0.573000  0.114550
0.574000  0.113820
0.575000  0.113120
0.576000  0.112420
0.577000  0.111760
0.578000  0.111170
0.579000  0.110570
0.580000  0.110000
0.581000  0.109490
0.582000  0.109060
0.583000  0.108690
0.584000  0.108260
0.585000  0.107750
0.586000  0.107280
0.587000  0.106790
0.588000  0.106340
0.589000  0.105980
0.590000  0.105660
0.591000  0.105470
0.592000  0.105390
0.593000  0.105310
0.594000  0.105180
0.595000  0.105040
0.596000  0.104890
0.597000  0.104700
0.598000  0.104510
0.599000  0.104320
0.600000  0.104130
0.601000  0.103920
0.602000  0.103690
0.603000  0.103430
0.604000  0.103190
0.605000  0.102900
0.606000  0.102530
0.607000  0.102100
0.608000  0.101650
0.609000  0.101250
0.610000  0.100880
0.611000  0.100450
0.612000  0.099950
0.613000  0.099410
0.614000  0.098870
0.615000  0.098350
0.616000  0.097910
0.617000  0.097500
0.618000  0.097100
0.619000  0.096710
0.620000  0.096400
0.621000  0.096140
0.622000  0.095840
0.623000  0.095660
0.624000  0.095510
0.625000  0.095350
0.626000  0.095220
0.627000  0.095180
0.628000  0.095170
0.629000  0.095120
0.630000  0.095060
0.631000  0.095010
0.632000  0.094960
0.633000  0.094820
0.634000  0.094620
0.635000  0.094390
0.636000  0.094120
0.637000  0.093710
0.638000  0.093230
0.639000  0.092710
0.640000  0.092140
0.641000  0.091550
0.642000  0.090930
0.643000  0.090290
0.644000  0.089620
0.645000  0.088940
0.646000  0.088290
0.647000  0.087710
0.648000  0.087180
0.649000  0.086710
0.650000  0.086300
0.651000  0.085960
0.652000  0.085660
0.653000  0.085370
0.654000  0.085090
0.655000  0.084780
0.656000  0.084470
0.657000  0.084100
0.658000  0.083660
0.659000  0.083190
0.660000  0.082660
0.661000  0.082100
0.662000  0.081560
0.663000  0.080980
0.664000  0.080400
0.665000  0.079890
0.666000  0.079490
0.667000  0.079100
0.668000  0.078750
0.669000  0.078480
0.670000  0.078250
0.671000  0.078090
0.672000  0.078020
0.673000  0.077940
0.674000  0.077920
0.675000  0.077960
0.676000  0.078070
0.677000  0.078220
0.678000  0.078360
0.679000  0.078540
0.680000  0.078850
0.681000  0.079260
0.682000  0.079780
0.683000  0.080450
0.684000  0.081270
0.685000  0.082290
0.686000  0.083520
0.687000  0.085020
0.688000  0.086860
0.689000  0.089060
0.690000  0.091630
0.691000  0.094630
0.692000  0.098100
0.693000  0.102010
0.694000  0.106340
0.695000  0.111090
0.696000  0.116260
0.697000  0.121830
0.698000  0.127700
0.699000  0.133880
0.700000  0.140260
0.701000  0.146820
0.702000  0.153550
0.703000  0.160350
0.704000  0.167210
0.705000  0.174110
0.706000  0.181040
0.707000  0.187950
0.708000  0.194910
0.709000  0.202000
0.710000  0.209070
0.711000  0.216220
0.712000  0.223460
0.713000  0.230700
0.714000  0.238090
0.715000  0.245580
0.716000  0.253120
0.717000  0.260710
0.718000  0.268370
0.719000  0.276070
0.720000  0.283820
0.721000  0.291640
0.722000  0.299450
0.723000  0.307240
0.724000  0.315050
0.725000  0.322790
0.726000  0.330390
0.727000  0.337850
0.728000  0.345170
0.729000  0.352340
0.730000  0.359350
0.731000  0.366200
0.732000  0.372790
0.733000  0.379170
0.734000  0.385360
0.735000  0.391340
0.736000  0.397110
0.737000  0.402610
0.738000  0.407820
0.739000  0.412850
0.740000  0.417610
0.741000  0.422140
0.742000  0.426500
0.743000  0.430560
0.744000  0.434370
0.745000  0.437980
0.746000  0.441390
0.747000  0.444510
0.748000  0.447410
0.749000  0.450150
0.750000  0.452660
0.751000  0.455050
0.752000  0.457240
0.753000  0.459180
0.754000  0.461060
0.755000  0.462830
0.756000  0.464460
0.757000  0.465900
0.758000  0.467200
0.759000  0.468440
0.760000  0.469650
0.761000  0.470770
0.762000  0.471750
0.763000  0.472670
0.764000  0.473550
0.765000  0.474350
0.766000  0.475080
0.767000  0.475790
0.768000  0.476500
0.769000  0.477090
0.770000  0.477650
0.771000  0.478250
0.772000  0.478800
0.773000  0.479310
0.774000  0.479820
0.775000  0.480340
0.776000  0.480790
0.777000  0.481210
0.778000  0.481620
0.779000  0.482030
0.780000  0.482420
0.781000  0.482850
0.782000  0.483290
0.783000  0.483640
0.784000  0.484000
0.785000  0.484330
0.786000  0.484650
0.787000  0.485060
0.788000  0.485400
0.789000  0.485710
0.790000  0.486050
0.791000  0.486370
0.792000  0.486650
0.793000  0.486910
0.794000  0.487220
0.795000  0.487520
0.796000  0.487790
0.797000  0.488050
0.798000  0.488290
0.799000  0.488570
0.800000  0.488840
0.801000  0.489060
0.802000  0.489230
0.803000  0.489430
0.804000  0.489630
0.805000  0.489780
0.806000  0.489980
0.807000  0.490170
0.808000  0.490340
0.809000  0.490490
0.810000  0.490640
0.811000  0.490780
0.812000  0.490940
0.813000  0.491100
0.814000  0.491190
0.815000  0.491270
0.816000  0.491420
0.817000  0.491550
0.818000  0.491690
0.819000  0.491820
0.820000  0.491890
0.821000  0.491960
0.822000  0.492110
0.823000  0.492270
0.824000  0.492280
0.825000  0.492350
0.826000  0.492410
0.827000  0.492430
0.828000  0.492490
0.829000  0.492590
0.830000  0.492640
0.831000  0.492620
0.832000  0.492650
0.833000  0.492660
0.834000  0.492710
0.835000  0.492860
0.836000  0.492930
0.837000  0.493000
0.838000  0.493110
0.839000  0.493220
0.840000  0.493310
0.841000  0.493440
0.842000  0.493590
0.843000  0.493700
0.844000  0.493820
0.845000  0.493970
0.846000  0.494110
0.847000  0.494180
0.848000  0.494320
0.849000  0.494480
0.850000  0.494590
0.851000  0.494720
0.852000  0.494820
0.853000  0.494950
0.854000  0.495180
0.855000  0.495300
0.856000  0.495400
0.857000  0.495540
0.858000  0.495700
0.859000  0.495840
0.860000  0.495940
0.861000  0.496010
0.862000  0.496120
0.863000  0.496210
0.864000  0.496340
0.865000  0.496530
0.866000  0.496600
0.867000  0.496740
0.868000  0.496900
0.869000  0.496990
0.870000  0.497130
0.871000  0.497300
0.872000  0.497450
0.873000  0.497530
0.874000  0.497650
0.875000  0.497720
0.876000  0.497770
0.877000  0.497930
0.878000  0.498060
0.879000  0.498160
0.880000  0.498240
0.881000  0.498310
0.882000  0.498450
0.883000  0.498530
0.884000  0.498510
0.885000  0.498660
0.886000  0.498740
0.887000  0.498770
0.888000  0.498850
0.889000  0.498980
0.890000  0.499020
0.891000  0.499010
0.892000  0.499040
0.893000  0.499100
0.894000  0.499120
0.895000  0.499130
0.896000  0.499130
0.897000  0.499120
0.898000  0.499190
0.899000  0.499290
0.900000  0.499250
0.901000  0.499210
0.902000  0.499220
0.903000  0.499240
0.904000  0.499210
0.905000  0.499260
0.906000  0.499340
0.907000  0.499380
0.908000  0.499340
0.909000  0.499270
0.910000  0.499280
0.911000  0.499390
0.912000  0.499420
0.913000  0.499350
0.914000  0.499320
0.915000  0.499440
0.916000  0.499400
0.917000  0.499320
0.918000  0.499210
0.919000  0.499090
0.920000  0.498980
0.921000  0.498940
0.922000  0.498890
0.923000  0.498690
0.924000  0.498570
0.925000  0.498460
0.926000  0.498300
0.927000  0.498100
0.928000  0.497790
0.929000  0.497560
0.930000  0.497410
0.931000  0.497110
0.932000  0.496690
0.933000  0.496310
0.934000  0.496010
0.935000  0.495650
0.936000  0.495250
0.937000  0.494770
0.938000  0.494260
0.939000  0.493960
0.940000  0.493490
0.941000  0.492890
0.942000  0.492250
0.943000  0.491610
0.944000  0.490800
0.945000  0.490040
0.946000  0.489410
0.947000  0.488660
0.948000  0.487740
0.949000  0.486770
0.950000  0.485830
0.951000  0.484660
0.952000  0.483470
0.953000  0.482190
0.954000  0.480810
0.955000  0.479600
0.956000  0.478410
0.957000  0.477210
0.958000  0.476050
0.959000  0.474910
0.960000  0.473830
0.961000  0.472910
0.962000  0.472160
0.963000  0.471280
0.964000  0.470670
0.965000  0.470190
0.966000  0.469580
0.967000  0.469060
0.968000  0.468700
0.969000  0.468370
0.970000  0.467910
0.971000  0.467570
0.972000  0.467330
0.973000  0.467140
0.974000  0.466920
0.975000  0.466620
0.976000  0.466420
0.977000  0.466390
0.978000  0.466450
0.979000  0.466350
0.980000  0.466210
0.981000  0.466180
0.982000  0.466310
0.983000  0.466420
0.984000  0.466470
0.985000  0.466590
0.986000  0.466900
0.987000  0.467050
0.988000  0.467440
0.989000  0.467840
0.990000  0.467900
0.991000  0.468460
0.992000  0.469270
0.993000  0.470080
0.994000  0.470880
0.995000  0.471690
0.996000  0.472500
0.997000  0.473300
0.998000  0.474110
0.999000  0.474920
1.000000  0.475720
1.001000  0.476530
1.002000  0.477330
1.003000  0.478140
1.004000  0.478950
1.005000  0.479750
1.006000  0.480560
1.007000  0.481370
1.008000  0.482170
1.009000  0.482980
1.010000  0.482980
1.011000  0.483580
1.012000  0.484150
1.013000  0.484750
1.014000  0.485300
1.015000  0.485810
1.016000  0.486330
1.017000  0.486900
1.018000  0.487480
1.019000  0.488130
1.020000  0.488770
1.021000  0.489340
1.022000  0.489950
1.023000  0.490520
1.024000  0.491060
1.025000  0.491600
1.026000  0.492110
1.027000  0.492630
1.028000  0.493130
1.029000  0.493660
1.030000  0.494210
1.031000  0.494760
1.032000  0.495320
1.033000  0.495870
1.034000  0.496310
1.035000  0.496770
1.036000  0.497200
1.037000  0.497630
1.038000  0.498100
1.039000  0.498670
1.040000  0.499130
1.041000  0.499580
1.042000  0.499980
1.043000  0.500290
1.044000  0.500670
1.045000  0.501050
1.046000  0.501410
1.047000  0.501800
1.048000  0.502180
1.049000  0.502530
1.050000  0.502880
1.051000  0.503250
1.052000  0.503590
1.053000  0.503910
1.054000  0.504220
1.055000  0.504520
1.056000  0.504770
1.057000  0.505060
1.058000  0.505370
1.059000  0.505650
1.060000  0.505920
1.061000  0.506200
1.062000  0.506460
1.063000  0.506710
1.064000  0.506950
1.065000  0.507200
1.066000  0.507420
1.067000  0.507630
1.068000  0.507830
1.069000  0.508040
1.070000  0.508220
1.071000  0.508390
1.072000  0.508520
1.073000  0.508640
1.074000  0.508740
1.075000  0.508780
1.076000  0.508850
1.077000  0.508930
1.078000  0.509000
1.079000  0.509080
1.080000  0.509150
1.081000  0.509230
1.082000  0.509290
1.083000  0.509350
1.084000  0.509370
1.085000  0.509360
1.086000  0.509300
1.087000  0.509230
1.088000  0.509120
1.089000  0.509040
1.090000  0.508970
1.091000  0.508860
1.092000  0.508750
1.093000  0.508620
1.094000  0.508440
1.095000  0.508310
1.096000  0.508220
1.097000  0.508060
1.098000  0.507880
1.099000  0.507680
1.100000  0.507420
1.101000  0.507180
1.102000  0.506950
1.103000  0.506690
1.104000  0.506440
1.105000  0.506180
1.106000  0.505900
1.107000  0.505620
1.108000  0.505320
1.109000  0.505020
1.110000  0.504670
1.111000  0.504270
1.112000  0.503880
1.113000  0.503450
1.114000  0.503000
1.115000  0.502550
1.116000  0.502050
1.117000  0.501530
1.118000  0.500950
1.119000  0.500360
1.120000  0.499690
1.121000  0.498980
1.122000  0.498180
1.123000  0.497270
1.124000  0.496300
1.125000  0.495210
1.126000  0.494030
1.127000  0.492710
1.128000  0.491320
1.129000  0.489790
1.130000  0.488150
1.131000  0.486370
1.132000  0.484470
1.133000  0.482450
1.134000  0.480290
1.135000  0.478010
1.136000  0.475610
1.137000  0.473080
1.138000  0.470450
1.139000  0.467730
1.140000  0.464940
1.141000  0.462140
1.142000  0.459290
1.143000  0.456440
1.144000  0.453630
1.145000  0.450800
1.146000  0.448070
1.147000  0.445350
1.148000  0.442750
1.149000  0.440180
1.150000  0.437810
1.151000  0.435540
1.152000  0.433410
1.153000  0.431440
1.154000  0.429600
1.155000  0.427880
1.156000  0.426300
1.157000  0.424850
1.158000  0.423510
1.159000  0.422290
1.160000  0.421170
1.161000  0.420140
1.162000  0.419190
1.163000  0.418310
1.164000  0.417480
1.165000  0.416720
1.166000  0.416040
1.167000  0.415410
1.168000  0.414860
1.169000  0.414300
1.170000  0.413780
1.171000  0.413260
1.172000  0.412770
1.173000  0.412270
1.174000  0.411800
1.175000  0.411330
1.176000  0.410860
1.177000  0.410380
1.178000  0.409880
1.179000  0.409380
1.180000  0.408880
1.181000  0.408380
1.182000  0.407880
1.183000  0.407380
1.184000  0.406870
1.185000  0.406370
1.186000  0.405890
1.187000  0.405430
1.188000  0.405010
1.189000  0.404600
1.190000  0.404230
1.191000  0.403910
1.192000  0.403610
1.193000  0.403340
1.194000  0.403100
1.195000  0.402890
1.196000  0.402700
1.197000  0.402590
1.198000  0.402520
1.199000  0.402480
1.200000  0.402500
1.201000  0.402560
1.202000  0.402640
1.203000  0.402780
1.204000  0.402960
1.205000  0.403200
1.206000  0.403490
1.207000  0.403830
1.208000  0.404220
1.209000  0.404630
1.210000  0.405060
1.211000  0.405530
1.212000  0.406030
1.213000  0.406570
1.214000  0.407180
1.215000  0.407790
1.216000  0.408440
1.217000  0.409100
1.218000  0.409780
1.219000  0.410490
1.220000  0.411230
1.221000  0.411990
1.222000  0.412750
1.223000  0.413510
1.224000  0.414280
1.225000  0.415000
1.226000  0.415730
1.227000  0.416460
1.228000  0.417160
1.229000  0.417850
1.230000  0.418520
1.231000  0.419170
1.232000  0.419800
1.233000  0.420410
1.234000  0.420990
1.235000  0.421530
1.236000  0.422080
1.237000  0.422610
1.238000  0.423150
1.239000  0.423690
1.240000  0.424210
1.241000  0.424700
1.242000  0.425150
1.243000  0.425570
1.244000  0.426000
1.245000  0.426430
1.246000  0.426840
1.247000  0.427260
1.248000  0.427640
1.249000  0.428000
1.250000  0.428350
1.251000  0.428680
1.252000  0.429000
1.253000  0.429310
1.254000  0.429600
1.255000  0.429900
1.256000  0.430170
1.257000  0.430440
1.258000  0.430700
1.259000  0.430930
1.260000  0.431130
1.261000  0.431330
1.262000  0.431500
1.263000  0.431660
1.264000  0.431820
1.265000  0.431940
1.266000  0.432040
1.267000  0.432120
1.268000  0.432180
1.269000  0.432230
1.270000  0.432260
1.271000  0.432260
1.272000  0.432250
1.273000  0.432210
1.274000  0.432140
1.275000  0.432060
1.276000  0.431940
1.277000  0.431800
1.278000  0.431640
1.279000  0.431440
1.280000  0.431220
1.281000  0.430990
1.282000  0.430730
1.283000  0.430460
1.284000  0.430180
1.285000  0.429840
1.286000  0.429490
1.287000  0.429120
1.288000  0.428720
1.289000  0.428280
1.290000  0.427830
1.291000  0.427350
1.292000  0.426830
1.293000  0.426270
1.294000  0.425700
1.295000  0.425100
1.296000  0.424460
1.297000  0.423770
1.298000  0.423040
1.299000  0.422270
1.300000  0.421490
1.301000  0.420680
1.302000  0.419790
1.303000  0.418860
1.304000  0.417900
1.305000  0.416900
1.306000  0.415840
1.307000  0.414730
1.308000  0.413600
1.309000  0.412380
1.310000  0.411120
1.311000  0.409840
1.312000  0.408480
1.313000  0.407100
1.314000  0.405660
1.315000  0.404180
1.316000  0.402650
1.317000  0.401080
1.318000  0.399450
1.319000  0.397780
1.320000  0.396060
1.321000  0.394250
1.322000  0.392420
1.323000  0.390570
1.324000  0.388690
1.325000  0.386780
1.326000  0.384830
1.327000  0.382830
1.328000  0.380800
1.329000  0.378740
1.330000  0.376670
1.331000  0.374580
1.332000  0.372480
1.333000  0.370390
1.334000  0.368310
1.335000  0.366220
1.336000  0.364130
1.337000  0.362070
1.338000  0.360010
1.339000  0.357980
1.340000  0.355970
1.341000  0.353980
1.342000  0.352020
1.343000  0.350100
1.344000  0.348200
